Fr√©quence (Hz)	Niveau (dB)
86,132812	-36,823040
172,265625	-18,273447
258,398438	-11,196147
344,531250	-11,813607
430,664062	-20,730963
516,796875	-32,528465
602,929688	-50,728420
689,062500	-50,446430
775,195312	-50,017677
861,328125	-49,203396
947,460938	-49,035313
1033,593750	-52,428608
1119,726562	-55,787788
1205,859375	-57,212208
1291,992188	-58,159779
1378,125000	-58,743835
1464,257812	-59,151379
1550,390625	-59,842636
1636,523438	-60,209606
1722,656250	-60,711292
1808,789062	-60,007374
1894,921875	-51,889790
1981,054688	-51,971199
2067,187500	-61,095566
2153,320312	-62,825287
2239,453125	-63,166710
2325,585938	-63,524937
2411,718750	-63,826935
2497,851562	-64,153435
2583,984375	-64,403076
2670,117188	-64,507378
2756,250000	-64,645935
2842,382812	-64,923935
2928,515625	-65,397118
3014,648438	-65,715782
3100,781250	-66,012138
3186,914062	-66,241470
3273,046875	-66,511292
3359,179688	-66,688530
3445,312500	-66,812088
3531,445312	-66,752274
3617,578125	-66,529663
3703,710938	-65,690781
3789,843750	-64,943169
3875,976562	-66,589523
3962,109375	-67,595482
4048,242188	-67,797333
4134,375000	-67,038071
4220,507812	-67,268661
4306,640625	-68,588387
4392,773438	-68,932747
4478,906250	-69,136459
4565,039062	-69,270538
4651,171875	-69,422928
4737,304688	-69,604080
4823,437500	-69,710930
4909,570312	-69,878761
4995,703125	-70,042122
5081,835938	-70,168846
5167,968750	-70,320816
5254,101562	-70,446800
5340,234375	-70,558754
5426,367188	-70,695160
5512,500000	-70,846283
5598,632812	-70,951492
5684,765625	-71,089996
5770,898438	-71,236519
5857,031250	-71,364166
5943,164062	-71,491806
6029,296875	-71,619011
6115,429688	-71,757980
6201,562500	-71,878960
6287,695312	-71,985580
6373,828125	-72,117104
6459,960938	-72,224228
6546,093750	-72,291443
6632,226562	-72,416283
6718,359375	-72,491547
6804,492188	-72,584473
6890,625000	-72,649818
6976,757812	-72,748276
7062,890625	-72,811554
7149,023438	-72,880630
7235,156250	-72,993607
7321,289062	-73,012802
7407,421875	-73,106140
7493,554688	-73,126266
7579,687500	-73,199394
7665,820312	-73,346443
7751,953125	-73,424721
7838,085938	-73,502754
7924,218750	-73,588654
8010,351562	-73,415054
8096,484375	-73,370262
8182,617188	-73,950989
8268,750000	-74,098076
8354,882812	-74,111710
8441,015625	-74,134613
8527,148438	-74,133995
8613,281250	-74,190117
8699,414062	-74,228165
8785,546875	-74,259697
8871,679688	-74,355072
8957,812500	-74,408752
9043,945312	-74,473053
9130,078125	-74,516449
9216,210938	-74,589531
9302,343750	-74,635117
9388,476562	-74,714027
9474,609375	-74,762131
9560,742188	-74,841164
9646,875000	-74,838249
9733,007812	-74,956139
9819,140625	-75,014938
9905,273438	-75,067238
9991,406250	-75,126831
10077,539062	-75,197876
10163,671875	-75,229996
10249,804688	-75,290596
10335,937500	-75,352623
10422,070312	-75,399323
10508,203125	-75,405098
10594,335938	-75,484024
10680,468750	-75,511276
10766,601562	-75,582047
10852,734375	-75,635536
10938,867188	-75,657677
11025,000000	-75,744911
11111,132812	-75,802345
11197,265625	-75,825478
11283,398438	-75,884705
11369,531250	-75,964317
11455,664062	-75,952759
11541,796875	-76,049919
11627,929688	-76,122246
11714,062500	-76,150246
11800,195312	-76,186607
11886,328125	-76,138657
11972,460938	-76,026421
12058,593750	-76,255043
12144,726562	-76,358208
12230,859375	-76,422813
12316,992188	-76,433525
12403,125000	-76,498672
12489,257812	-76,547501
12575,390625	-76,575584
12661,523438	-76,614487
12747,656250	-76,623734
12833,789062	-76,702805
12919,921875	-76,768776
13006,054688	-76,761986
13092,187500	-76,841217
13178,320312	-76,865250
13264,453125	-76,870346
13350,585938	-76,961304
13436,718750	-76,958672
13522,851562	-77,000992
13608,984375	-77,053497
13695,117188	-77,085510
13781,250000	-77,124840
13867,382812	-77,173004
13953,515625	-77,205185
14039,648438	-77,267891
14125,781250	-77,300980
14211,914062	-77,342644
14298,046875	-77,349777
14384,179688	-77,360214
14470,312500	-77,406448
14556,445312	-77,497780
14642,578125	-77,428070
14728,710938	-77,545677
14814,843750	-77,476433
14900,976562	-77,619873
14987,109375	-77,892357
15073,242188	-78,265701
15159,375000	-78,312866
15245,507812	-78,341125
15331,640625	-78,371002
15417,773438	-78,395912
15503,906250	-78,424316
15590,039062	-78,450478
15676,171875	-78,475449
15762,304688	-78,501793
15848,437500	-78,529587
15934,570312	-78,552269
16020,703125	-78,578133
16106,835938	-78,601318
16192,968750	-78,623451
16279,101562	-78,648903
16365,234375	-78,673973
16451,367188	-78,694061
16537,500000	-78,717239
16623,632812	-78,738922
16709,765625	-78,758949
16795,898438	-78,781410
16882,031250	-78,802155
16968,164062	-78,822594
17054,296875	-78,844498
17140,429688	-78,860100
17226,562500	-78,882271
17312,695312	-78,899490
17398,828125	-78,919662
17484,960938	-78,935738
17571,093750	-78,957108
17657,226562	-78,970695
17743,359375	-78,990356
17829,492188	-79,005623
17915,625000	-79,022125
18001,757812	-79,037102
18087,890625	-79,055832
18174,023438	-79,069328
18260,156250	-79,083595
18346,289062	-79,100647
18432,421875	-79,111183
18518,554688	-79,126091
18604,687500	-79,142830
18690,820312	-79,152153
18776,953125	-79,168617
18863,085938	-79,178825
18949,218750	-79,189384
19035,351562	-79,203499
19121,484375	-79,214172
19207,617188	-79,225204
19293,750000	-79,237068
19379,882812	-79,247711
19466,015625	-79,254845
19552,148438	-79,268166
19638,281250	-79,275253
19724,414062	-79,283661
19810,546875	-79,296074
19896,679688	-79,302238
19982,812500	-79,310204
20068,945312	-79,318466
20155,078125	-79,323456
20241,210938	-79,332939
20327,343750	-79,340950
20413,476562	-79,344986
20499,609375	-79,352699
20585,742188	-79,357635
20671,875000	-79,361465
20758,007812	-79,368065
20844,140625	-79,372780
20930,273438	-79,376053
21016,406250	-79,384048
21102,539062	-79,384117
21188,671875	-79,387421
21274,804688	-79,391602
21360,937500	-79,394493
21447,070312	-79,397316
21533,203125	-79,400108
21619,335938	-79,401215
21705,468750	-79,400208
21791,601562	-79,403893
21877,734375	-79,403915
21963,867188	-79,405960
