Fr√©quence (Hz)	Niveau (dB)
86,132812	-40,943424
172,265625	-21,775673
258,398438	-13,896955
344,531250	-13,020722
430,664062	-21,445972
516,796875	-34,195217
602,929688	-50,907204
689,062500	-52,179348
775,195312	-53,403809
861,328125	-52,424820
947,460938	-51,426182
1033,593750	-54,625751
1119,726562	-57,373955
1205,859375	-58,625164
1291,992188	-59,554214
1378,125000	-60,131454
1464,257812	-60,551178
1550,390625	-61,102409
1636,523438	-61,718372
1722,656250	-62,199448
1808,789062	-62,303745
1894,921875	-60,541691
1981,054688	-62,156841
2067,187500	-63,948635
2153,320312	-64,273537
2239,453125	-64,626312
2325,585938	-64,982506
2411,718750	-65,323013
2497,851562	-65,597839
2583,984375	-65,872864
2670,117188	-66,132332
2756,250000	-66,408607
2842,382812	-66,659233
2928,515625	-66,978340
3014,648438	-67,226601
3100,781250	-67,476280
3186,914062	-67,694145
3273,046875	-67,928116
3359,179688	-68,156616
3445,312500	-68,327347
3531,445312	-68,372955
3617,578125	-68,591667
3703,710938	-68,920906
3789,843750	-69,112450
3875,976562	-69,311089
3962,109375	-69,482246
4048,242188	-69,535622
4134,375000	-68,989250
4220,507812	-68,857079
4306,640625	-70,017746
4392,773438	-70,400078
4478,906250	-70,525383
4565,039062	-70,687729
4651,171875	-70,856583
4737,304688	-70,999519
4823,437500	-71,119209
4909,570312	-71,262421
4995,703125	-71,444702
5081,835938	-71,562263
5167,968750	-71,704346
5254,101562	-71,872963
5340,234375	-71,983391
5426,367188	-72,089302
5512,500000	-72,217323
5598,632812	-72,368881
5684,765625	-72,519356
5770,898438	-72,657654
5857,031250	-72,787315
5943,164062	-72,901230
6029,296875	-73,039307
6115,429688	-73,163300
6201,562500	-73,305351
6287,695312	-73,443260
6373,828125	-73,527184
6459,960938	-73,641884
6546,093750	-73,767586
6632,226562	-73,818459
6718,359375	-73,902580
6804,492188	-73,987167
6890,625000	-74,045471
6976,757812	-74,085594
7062,890625	-74,183228
7149,023438	-74,257126
7235,156250	-74,316826
7321,289062	-74,374657
7407,421875	-74,390244
7493,554688	-74,422272
7579,687500	-74,545036
7665,820312	-74,656105
7751,953125	-74,735458
7838,085938	-74,806526
7924,218750	-74,858414
8010,351562	-74,823860
8096,484375	-74,847244
8182,617188	-75,260017
8268,750000	-75,499565
8354,882812	-75,478012
8441,015625	-75,446930
8527,148438	-75,479111
8613,281250	-75,423882
8699,414062	-75,506737
8785,546875	-75,535179
8871,679688	-75,587196
8957,812500	-75,656624
9043,945312	-75,680298
9130,078125	-75,790077
9216,210938	-75,768509
9302,343750	-75,884583
9388,476562	-75,916489
9474,609375	-76,005882
9560,742188	-76,026466
9646,875000	-76,125008
9733,007812	-76,119453
9819,140625	-76,196434
9905,273438	-76,274017
9991,406250	-76,335442
10077,539062	-76,373222
10163,671875	-76,441711
10249,804688	-76,469849
10335,937500	-76,560509
10422,070312	-76,596031
10508,203125	-76,628235
10594,335938	-76,610146
10680,468750	-76,714790
10766,601562	-76,691261
10852,734375	-76,746750
10938,867188	-76,810585
11025,000000	-76,929916
11111,132812	-76,919617
11197,265625	-76,989868
11283,398438	-77,132927
11369,531250	-77,106476
11455,664062	-77,152794
11541,796875	-77,269531
11627,929688	-77,296753
11714,062500	-77,371902
11800,195312	-77,351578
11886,328125	-77,323738
11972,460938	-77,275650
12058,593750	-77,402039
12144,726562	-77,501381
12230,859375	-77,584595
12316,992188	-77,545898
12403,125000	-77,654198
12489,257812	-77,679260
12575,390625	-77,686493
12661,523438	-77,795204
12747,656250	-77,783035
12833,789062	-77,891525
12919,921875	-77,875732
13006,054688	-77,904892
13092,187500	-78,010521
13178,320312	-77,987617
13264,453125	-78,070122
13350,585938	-78,106697
13436,718750	-78,151787
13522,851562	-78,129883
13608,984375	-78,193489
13695,117188	-78,189049
13781,250000	-78,290230
13867,382812	-78,293373
13953,515625	-78,381935
14039,648438	-78,409515
14125,781250	-78,446838
14211,914062	-78,499031
14298,046875	-78,477791
14384,179688	-78,562637
14470,312500	-78,566170
14556,445312	-78,571075
14642,578125	-78,642097
14728,710938	-78,584122
14814,843750	-78,682640
14900,976562	-78,704208
14987,109375	-79,220581
15073,242188	-79,719620
15159,375000	-79,793709
15245,507812	-79,820663
15331,640625	-79,848633
15417,773438	-79,877228
15503,906250	-79,901505
15590,039062	-79,930733
15676,171875	-79,958366
15762,304688	-79,982613
15848,437500	-80,004204
15934,570312	-80,034561
16020,703125	-80,056412
16106,835938	-80,082535
16192,968750	-80,107285
16279,101562	-80,128914
16365,234375	-80,148506
16451,367188	-80,175964
16537,500000	-80,198723
16623,632812	-80,217506
16709,765625	-80,241226
16795,898438	-80,262177
16882,031250	-80,280846
16968,164062	-80,303123
17054,296875	-80,324936
17140,429688	-80,341934
17226,562500	-80,359039
17312,695312	-80,383011
17398,828125	-80,398697
17484,960938	-80,416405
17571,093750	-80,437195
17657,226562	-80,452484
17743,359375	-80,468613
17829,492188	-80,485985
17915,625000	-80,504341
18001,757812	-80,519196
18087,890625	-80,534378
18174,023438	-80,549637
18260,156250	-80,563187
18346,289062	-80,579582
18432,421875	-80,594864
18518,554688	-80,607918
18604,687500	-80,617897
18690,820312	-80,636299
18776,953125	-80,645538
18863,085938	-80,659927
18949,218750	-80,673386
19035,351562	-80,682281
19121,484375	-80,693130
19207,617188	-80,706367
19293,750000	-80,719048
19379,882812	-80,727142
19466,015625	-80,736290
19552,148438	-80,746689
19638,281250	-80,756416
19724,414062	-80,764633
19810,546875	-80,777756
19896,679688	-80,780792
19982,812500	-80,789467
20068,945312	-80,797615
20155,078125	-80,810326
20241,210938	-80,810638
20327,343750	-80,821281
20413,476562	-80,826324
20499,609375	-80,829880
20585,742188	-80,839333
20671,875000	-80,844620
20758,007812	-80,847694
20844,140625	-80,853699
20930,273438	-80,857826
21016,406250	-80,860069
21102,539062	-80,865677
21188,671875	-80,871155
21274,804688	-80,871025
21360,937500	-80,874657
21447,070312	-80,875900
21533,203125	-80,882553
21619,335938	-80,880852
21705,468750	-80,881912
21791,601562	-80,884872
21877,734375	-80,881798
21963,867188	-80,886147
