Fr√©quence (Hz)	Niveau (dB)
86,132812	-41,432667
172,265625	-22,148140
258,398438	-15,326494
344,531250	-15,696076
430,664062	-22,916143
516,796875	-32,826809
602,929688	-39,232033
689,062500	-40,305553
775,195312	-51,152069
861,328125	-54,562473
947,460938	-54,457439
1033,593750	-57,520641
1119,726562	-58,899441
1205,859375	-59,777237
1291,992188	-60,457363
1378,125000	-61,067234
1464,257812	-61,652374
1550,390625	-62,148270
1636,523438	-62,684090
1722,656250	-63,043385
1808,789062	-63,481083
1894,921875	-64,019524
1981,054688	-64,458870
2067,187500	-64,818779
2153,320312	-65,179230
2239,453125	-65,543930
2325,585938	-65,850471
2411,718750	-66,203407
2497,851562	-66,475655
2583,984375	-66,774849
2670,117188	-67,049355
2756,250000	-67,338303
2842,382812	-67,562225
2928,515625	-67,886436
3014,648438	-68,099274
3100,781250	-68,357246
3186,914062	-68,573250
3273,046875	-68,787514
3359,179688	-69,034218
3445,312500	-69,167664
3531,445312	-69,296532
3617,578125	-69,512337
3703,710938	-69,850052
3789,843750	-70,034569
3875,976562	-70,196503
3962,109375	-70,345802
4048,242188	-70,416801
4134,375000	-69,858498
4220,507812	-69,968513
4306,640625	-70,958740
4392,773438	-71,229897
4478,906250	-71,390327
4565,039062	-71,534241
4651,171875	-71,720985
4737,304688	-71,821083
4823,437500	-71,985909
4909,570312	-72,108009
4995,703125	-72,263550
5081,835938	-72,407425
5167,968750	-72,587379
5254,101562	-72,646507
5340,234375	-72,850792
5426,367188	-72,928810
5512,500000	-73,069778
5598,632812	-73,200836
5684,765625	-73,339630
5770,898438	-73,498466
5857,031250	-73,587791
5943,164062	-73,744644
6029,296875	-73,862206
6115,429688	-74,027092
6201,562500	-74,134270
6287,695312	-74,273773
6373,828125	-74,382858
6459,960938	-74,498466
6546,093750	-74,593369
6632,226562	-74,678482
6718,359375	-74,773285
6804,492188	-74,833107
6890,625000	-74,868324
6976,757812	-74,952339
7062,890625	-75,016174
7149,023438	-75,064339
7235,156250	-75,171631
7321,289062	-75,179543
7407,421875	-75,239754
7493,554688	-75,320465
7579,687500	-75,355614
7665,820312	-75,478546
7751,953125	-75,576416
7838,085938	-75,593109
7924,218750	-75,698563
8010,351562	-75,665726
8096,484375	-75,740883
8182,617188	-76,138618
8268,750000	-76,309746
8354,882812	-76,327988
8441,015625	-76,252670
8527,148438	-76,286568
8613,281250	-76,248711
8699,414062	-76,314346
8785,546875	-76,349915
8871,679688	-76,419106
8957,812500	-76,468330
9043,945312	-76,473915
9130,078125	-76,556427
9216,210938	-76,615646
9302,343750	-76,646194
9388,476562	-76,746262
9474,609375	-76,767639
9560,742188	-76,833694
9646,875000	-76,853470
9733,007812	-76,944824
9819,140625	-77,000877
9905,273438	-77,067802
9991,406250	-77,087311
10077,539062	-77,140495
10163,671875	-77,191200
10249,804688	-77,280952
10335,937500	-77,303436
10422,070312	-77,327934
10508,203125	-77,399551
10594,335938	-77,440788
10680,468750	-77,466400
10766,601562	-77,463524
10852,734375	-77,542702
10938,867188	-77,598976
11025,000000	-77,663956
11111,132812	-77,688683
11197,265625	-77,750298
11283,398438	-77,839706
11369,531250	-77,831299
11455,664062	-77,863373
11541,796875	-77,964302
11627,929688	-78,012619
11714,062500	-78,035683
11800,195312	-78,087341
11886,328125	-78,018608
11972,460938	-78,040833
12058,593750	-78,117744
12144,726562	-78,211853
12230,859375	-78,305969
12316,992188	-78,293663
12403,125000	-78,324318
12489,257812	-78,405685
12575,390625	-78,403297
12661,523438	-78,453201
12747,656250	-78,567986
12833,789062	-78,546387
12919,921875	-78,609390
13006,054688	-78,651985
13092,187500	-78,651695
13178,320312	-78,735527
13264,453125	-78,763596
13350,585938	-78,784248
13436,718750	-78,831436
13522,851562	-78,871536
13608,984375	-78,943161
13695,117188	-78,944511
13781,250000	-78,995026
13867,382812	-79,057381
13953,515625	-79,098999
14039,648438	-79,195160
14125,781250	-79,205666
14211,914062	-79,228416
14298,046875	-79,220779
14384,179688	-79,248962
14470,312500	-79,261406
14556,445312	-79,301544
14642,578125	-79,372253
14728,710938	-79,377182
14814,843750	-79,342422
14900,976562	-79,443466
14987,109375	-80,010765
15073,242188	-80,581726
15159,375000	-80,657722
15245,507812	-80,686653
15331,640625	-80,714340
15417,773438	-80,737686
15503,906250	-80,769882
15590,039062	-80,796806
15676,171875	-80,819695
15762,304688	-80,845436
15848,437500	-80,873764
15934,570312	-80,898087
16020,703125	-80,921234
16106,835938	-80,947273
16192,968750	-80,969292
16279,101562	-80,993500
16365,234375	-81,017464
16451,367188	-81,037521
16537,500000	-81,064598
16623,632812	-81,080780
16709,765625	-81,104988
16795,898438	-81,128952
16882,031250	-81,148140
16968,164062	-81,163376
17054,296875	-81,188820
17140,429688	-81,208153
17226,562500	-81,227531
17312,695312	-81,241447
17398,828125	-81,265915
17484,960938	-81,283989
17571,093750	-81,297882
17657,226562	-81,316544
17743,359375	-81,335976
17829,492188	-81,351402
17915,625000	-81,365166
18001,757812	-81,384186
18087,890625	-81,400375
18174,023438	-81,412811
18260,156250	-81,428856
18346,289062	-81,444313
18432,421875	-81,458687
18518,554688	-81,471466
18604,687500	-81,484940
18690,820312	-81,499077
18776,953125	-81,511963
18863,085938	-81,522308
18949,218750	-81,537132
19035,351562	-81,548042
19121,484375	-81,560982
19207,617188	-81,566116
19293,750000	-81,582230
19379,882812	-81,594414
19466,015625	-81,600830
19552,148438	-81,610931
19638,281250	-81,620491
19724,414062	-81,632767
19810,546875	-81,636742
19896,679688	-81,646530
19982,812500	-81,657295
20068,945312	-81,662582
20155,078125	-81,669037
20241,210938	-81,679276
20327,343750	-81,685280
20413,476562	-81,690224
20499,609375	-81,695328
20585,742188	-81,704399
20671,875000	-81,708786
20758,007812	-81,711037
20844,140625	-81,717598
20930,273438	-81,724495
21016,406250	-81,727386
21102,539062	-81,726471
21188,671875	-81,735596
21274,804688	-81,737350
21360,937500	-81,739021
21447,070312	-81,740822
21533,203125	-81,743759
21619,335938	-81,748253
21705,468750	-81,745178
21791,601562	-81,748657
21877,734375	-81,750175
21963,867188	-81,749229
