Fr√©quence (Hz)	Niveau (dB)
86,132812	-37,653728
172,265625	-19,065382
258,398438	-10,977482
344,531250	-11,657150
430,664062	-24,407064
516,796875	-31,775200
602,929688	-32,386547
689,062500	-31,489874
775,195312	-43,340511
861,328125	-48,151085
947,460938	-47,931778
1033,593750	-53,448601
1119,726562	-54,766537
1205,859375	-55,489891
1291,992188	-56,137852
1378,125000	-56,819679
1464,257812	-57,325859
1550,390625	-57,780151
1636,523438	-58,395634
1722,656250	-58,869595
1808,789062	-59,318977
1894,921875	-59,798450
1981,054688	-60,210270
2067,187500	-60,566414
2153,320312	-60,920307
2239,453125	-61,294399
2325,585938	-61,641972
2411,718750	-61,954914
2497,851562	-62,261932
2583,984375	-62,559265
2670,117188	-62,838959
2756,250000	-63,102043
2842,382812	-63,398663
2928,515625	-63,647743
3014,648438	-63,902260
3100,781250	-64,155640
3186,914062	-64,365395
3273,046875	-64,615013
3359,179688	-64,815262
3445,312500	-65,065346
3531,445312	-65,184746
3617,578125	-65,337059
3703,710938	-65,659683
3789,843750	-65,873466
3875,976562	-66,049980
3962,109375	-66,215340
4048,242188	-66,315529
4134,375000	-65,786942
4220,507812	-65,735847
4306,640625	-66,843864
4392,773438	-67,120232
4478,906250	-67,253670
4565,039062	-67,415497
4651,171875	-67,586174
4737,304688	-67,732498
4823,437500	-67,899620
4909,570312	-68,028900
4995,703125	-68,167793
5081,835938	-68,330864
5167,968750	-68,467117
5254,101562	-68,605019
5340,234375	-68,730164
5426,367188	-68,863068
5512,500000	-69,001930
5598,632812	-69,133057
5684,765625	-69,258888
5770,898438	-69,384804
5857,031250	-69,509804
5943,164062	-69,626892
6029,296875	-69,776245
6115,429688	-69,867920
6201,562500	-70,006958
6287,695312	-70,114761
6373,828125	-70,234169
6459,960938	-70,346359
6546,093750	-70,439774
6632,226562	-70,530144
6718,359375	-70,652573
6804,492188	-70,719490
6890,625000	-70,825783
6976,757812	-70,909004
7062,890625	-70,976067
7149,023438	-71,085510
7235,156250	-71,168716
7321,289062	-71,241707
7407,421875	-71,309258
7493,554688	-71,378914
7579,687500	-71,482521
7665,820312	-71,573837
7751,953125	-71,668411
7838,085938	-71,743660
7924,218750	-71,809631
8010,351562	-71,772865
8096,484375	-71,741203
8182,617188	-72,100655
8268,750000	-72,245255
8354,882812	-72,322578
8441,015625	-72,339256
8527,148438	-72,383324
8613,281250	-72,459633
8699,414062	-72,531113
8785,546875	-72,581741
8871,679688	-72,644157
8957,812500	-72,729034
9043,945312	-72,793648
9130,078125	-72,838570
9216,210938	-72,929977
9302,343750	-72,958878
9388,476562	-73,057549
9474,609375	-73,102455
9560,742188	-73,194122
9646,875000	-73,233009
9733,007812	-73,286201
9819,140625	-73,379463
9905,273438	-73,405106
9991,406250	-73,470261
10077,539062	-73,553101
10163,671875	-73,586105
10249,804688	-73,659355
10335,937500	-73,709259
10422,070312	-73,762489
10508,203125	-73,810806
10594,335938	-73,866791
10680,468750	-73,931396
10766,601562	-73,948967
10852,734375	-74,040726
10938,867188	-74,072281
11025,000000	-74,135208
11111,132812	-74,187065
11197,265625	-74,225273
11283,398438	-74,298851
11369,531250	-74,336792
11455,664062	-74,381264
11541,796875	-74,424873
11627,929688	-74,506073
11714,062500	-74,557076
11800,195312	-74,596344
11886,328125	-74,529549
11972,460938	-74,530243
12058,593750	-74,660721
12144,726562	-74,747055
12230,859375	-74,799965
12316,992188	-74,871063
12403,125000	-74,866241
12489,257812	-74,945534
12575,390625	-74,961754
12661,523438	-75,059212
12747,656250	-75,022682
12833,789062	-75,124184
12919,921875	-75,143112
13006,054688	-75,204849
13092,187500	-75,233307
13178,320312	-75,251389
13264,453125	-75,315231
13350,585938	-75,317978
13436,718750	-75,399422
13522,851562	-75,404892
13608,984375	-75,444099
13695,117188	-75,519295
13781,250000	-75,514946
13867,382812	-75,584312
13953,515625	-75,608177
14039,648438	-75,697868
14125,781250	-75,669113
14211,914062	-75,718506
14298,046875	-75,748695
14384,179688	-75,786346
14470,312500	-75,817116
14556,445312	-75,861137
14642,578125	-75,844093
14728,710938	-75,905350
14814,843750	-75,941895
14900,976562	-75,972794
14987,109375	-76,144173
15073,242188	-76,334175
15159,375000	-76,375671
15245,507812	-76,400620
15331,640625	-76,431221
15417,773438	-76,457085
15503,906250	-76,483482
15590,039062	-76,509575
15676,171875	-76,539917
15762,304688	-76,561966
15848,437500	-76,590355
15934,570312	-76,613205
16020,703125	-76,635147
16106,835938	-76,662964
16192,968750	-76,686745
16279,101562	-76,709961
16365,234375	-76,733841
16451,367188	-76,755074
16537,500000	-76,775414
16623,632812	-76,799149
16709,765625	-76,822304
16795,898438	-76,841972
16882,031250	-76,864189
16968,164062	-76,883881
17054,296875	-76,900589
17140,429688	-76,923096
17226,562500	-76,943695
17312,695312	-76,959358
17398,828125	-76,983131
17484,960938	-76,996536
17571,093750	-77,013710
17657,226562	-77,033005
17743,359375	-77,051743
17829,492188	-77,065804
17915,625000	-77,084938
18001,757812	-77,100067
18087,890625	-77,111572
18174,023438	-77,130341
18260,156250	-77,145645
18346,289062	-77,159180
18432,421875	-77,175896
18518,554688	-77,188599
18604,687500	-77,198242
18690,820312	-77,215004
18776,953125	-77,228477
18863,085938	-77,238525
18949,218750	-77,254570
19035,351562	-77,263252
19121,484375	-77,273438
19207,617188	-77,285927
19293,750000	-77,297836
19379,882812	-77,306458
19466,015625	-77,320930
19552,148438	-77,327324
19638,281250	-77,334625
19724,414062	-77,345909
19810,546875	-77,354881
19896,679688	-77,362823
19982,812500	-77,373734
20068,945312	-77,378906
20155,078125	-77,383957
20241,210938	-77,393768
20327,343750	-77,398964
20413,476562	-77,406898
20499,609375	-77,415428
20585,742188	-77,417984
20671,875000	-77,422867
20758,007812	-77,428329
20844,140625	-77,433403
20930,273438	-77,437370
21016,406250	-77,445175
21102,539062	-77,445930
21188,671875	-77,447289
21274,804688	-77,453430
21360,937500	-77,453674
21447,070312	-77,457787
21533,203125	-77,462799
21619,335938	-77,461723
21705,468750	-77,460556
21791,601562	-77,465370
21877,734375	-77,463982
21963,867188	-77,465332
