Fr√©quence (Hz)	Niveau (dB)
86,132812	-33,125931
172,265625	-17,556639
258,398438	-11,280369
344,531250	-12,449272
430,664062	-19,977942
516,796875	-30,762293
602,929688	-48,548088
689,062500	-49,708569
775,195312	-49,980507
861,328125	-50,161308
947,460938	-51,233315
1033,593750	-53,845898
1119,726562	-55,895744
1205,859375	-57,052353
1291,992188	-58,054840
1378,125000	-58,719025
1464,257812	-59,098877
1550,390625	-59,791817
1636,523438	-60,205345
1722,656250	-60,659851
1808,789062	-56,017307
1894,921875	-46,746849
1981,054688	-48,830761
2067,187500	-60,701397
2153,320312	-62,759720
2239,453125	-63,128834
2325,585938	-63,469528
2411,718750	-63,752804
2497,851562	-64,020966
2583,984375	-64,001411
2670,117188	-63,143204
2756,250000	-63,266930
2842,382812	-63,616444
2928,515625	-64,858528
3014,648438	-65,395966
3100,781250	-65,849068
3186,914062	-66,159065
3273,046875	-66,391037
3359,179688	-66,496040
3445,312500	-66,247444
3531,445312	-65,323303
3617,578125	-63,743790
3703,710938	-60,969753
3789,843750	-60,751698
3875,976562	-63,954449
3962,109375	-65,701416
4048,242188	-66,654907
4134,375000	-66,645470
4220,507812	-67,229126
4306,640625	-68,446159
4392,773438	-68,821953
4478,906250	-69,060440
4565,039062	-69,223808
4651,171875	-69,380234
4737,304688	-69,501335
4823,437500	-69,695770
4909,570312	-69,808464
4995,703125	-69,972099
5081,835938	-70,126015
5167,968750	-70,269577
5254,101562	-70,374207
5340,234375	-70,508713
5426,367188	-70,652397
5512,500000	-70,775406
5598,632812	-70,902359
5684,765625	-71,057541
5770,898438	-71,201828
5857,031250	-71,298691
5943,164062	-71,431953
6029,296875	-71,567070
6115,429688	-71,705276
6201,562500	-71,813332
6287,695312	-71,927116
6373,828125	-71,924919
6459,960938	-71,885063
6546,093750	-72,223854
6632,226562	-72,313911
6718,359375	-72,437531
6804,492188	-72,522171
6890,625000	-72,593674
6976,757812	-72,651680
7062,890625	-72,736176
7149,023438	-72,830208
7235,156250	-72,898048
7321,289062	-72,940460
7407,421875	-73,012520
7493,554688	-73,026756
7579,687500	-73,143547
7665,820312	-73,283920
7751,953125	-73,336792
7838,085938	-73,461990
7924,218750	-73,545403
8010,351562	-73,299614
8096,484375	-73,380669
8182,617188	-73,873177
8268,750000	-74,015854
8354,882812	-74,083847
8441,015625	-74,074524
8527,148438	-74,140320
8613,281250	-74,112442
8699,414062	-74,181427
8785,546875	-74,218193
8871,679688	-74,337128
8957,812500	-74,395599
9043,945312	-74,460022
9130,078125	-74,532143
9216,210938	-74,580452
9302,343750	-74,642410
9388,476562	-74,718994
9474,609375	-74,748955
9560,742188	-74,853828
9646,875000	-74,872627
9733,007812	-74,976509
9819,140625	-75,039848
9905,273438	-75,075401
9991,406250	-75,142166
10077,539062	-75,221191
10163,671875	-75,254562
10249,804688	-75,302582
10335,937500	-75,387970
10422,070312	-75,389076
10508,203125	-75,502754
10594,335938	-75,492485
10680,468750	-75,609451
10766,601562	-75,587341
10852,734375	-75,684731
10938,867188	-75,691788
11025,000000	-75,825035
11111,132812	-75,787758
11197,265625	-75,939323
11283,398438	-75,958130
11369,531250	-75,956276
11455,664062	-76,004868
11541,796875	-76,104843
11627,929688	-76,149117
11714,062500	-76,207237
11800,195312	-76,243263
11886,328125	-76,159927
11972,460938	-76,027092
12058,593750	-76,343742
12144,726562	-76,369057
12230,859375	-76,477890
12316,992188	-76,517609
12403,125000	-76,533577
12489,257812	-76,601807
12575,390625	-76,608696
12661,523438	-76,697815
12747,656250	-76,701439
12833,789062	-76,739296
12919,921875	-76,771767
13006,054688	-76,862823
13092,187500	-76,861954
13178,320312	-76,890732
13264,453125	-76,960327
13350,585938	-77,004509
13436,718750	-77,024361
13522,851562	-77,072121
13608,984375	-77,125534
13695,117188	-77,153572
13781,250000	-77,197189
13867,382812	-77,240295
13953,515625	-77,239700
14039,648438	-77,322380
14125,781250	-77,340561
14211,914062	-77,384720
14298,046875	-77,356697
14384,179688	-77,433762
14470,312500	-77,459709
14556,445312	-77,483200
14642,578125	-77,528954
14728,710938	-77,553993
14814,843750	-77,552284
14900,976562	-77,622398
14987,109375	-77,937027
15073,242188	-78,194824
15159,375000	-78,250214
15245,507812	-78,275162
15331,640625	-78,304184
15417,773438	-78,331078
15503,906250	-78,358154
15590,039062	-78,385170
15676,171875	-78,412071
15762,304688	-78,436829
15848,437500	-78,461662
15934,570312	-78,488091
16020,703125	-78,512436
16106,835938	-78,536606
16192,968750	-78,558304
16279,101562	-78,585747
16365,234375	-78,606522
16451,367188	-78,629021
16537,500000	-78,650162
16623,632812	-78,673897
16709,765625	-78,695549
16795,898438	-78,717010
16882,031250	-78,735405
16968,164062	-78,758202
17054,296875	-78,776787
17140,429688	-78,797813
17226,562500	-78,815872
17312,695312	-78,834167
17398,828125	-78,853447
17484,960938	-78,873146
17571,093750	-78,889168
17657,226562	-78,906143
17743,359375	-78,924599
17829,492188	-78,940491
17915,625000	-78,957588
18001,757812	-78,972740
18087,890625	-78,987511
18174,023438	-79,004730
18260,156250	-79,019852
18346,289062	-79,033333
18432,421875	-79,047569
18518,554688	-79,061279
18604,687500	-79,075943
18690,820312	-79,088654
18776,953125	-79,100868
18863,085938	-79,112846
18949,218750	-79,127335
19035,351562	-79,136978
19121,484375	-79,150970
19207,617188	-79,157814
19293,750000	-79,170876
19379,882812	-79,182579
19466,015625	-79,192802
19552,148438	-79,199669
19638,281250	-79,210251
19724,414062	-79,221054
19810,546875	-79,228798
19896,679688	-79,237206
19982,812500	-79,243217
20068,945312	-79,254143
20155,078125	-79,260338
20241,210938	-79,267067
20327,343750	-79,273460
20413,476562	-79,280190
20499,609375	-79,287376
20585,742188	-79,293221
20671,875000	-79,295639
20758,007812	-79,302917
20844,140625	-79,307114
20930,273438	-79,312767
21016,406250	-79,317833
21102,539062	-79,318222
21188,671875	-79,322701
21274,804688	-79,327576
21360,937500	-79,328735
21447,070312	-79,331642
21533,203125	-79,333908
21619,335938	-79,336205
21705,468750	-79,336258
21791,601562	-79,338753
21877,734375	-79,338249
21963,867188	-79,339699
